TITLE,test
DATA TYPE,INFRARED SPECTRUM
ORIGIN,JASCO
OWNER,test
DATE,26/02/12
TIME,12:28:58
SPECTROMETER/DATA SYSTEM,
LOCALE,1041
RESOLUTION,
DELTAX,1.92847
XUNITS,1/CM
YUNITS,INTENSITY
FIRSTX,  998.9459
LASTX, 6001.3891
NPOINTS,    2595
FIRSTY,    37.79730
MAXY,    64.17134
MINY,     2.67769
XYDATA
998.9459,37.7973
1000.8743,37.8586
1002.8028,37.8848
1004.7313,37.8732
1006.6597,37.8219
1008.5882,37.7314
1010.5167,37.6061
1012.4451,37.4543
1014.3736,37.2865
1016.3021,37.1135
1018.2305,36.9436
1020.1590,36.7813
1022.0875,36.6275
1024.0160,36.4804
1025.9445,36.3371
1027.8729,36.1949
1029.8014,36.0512
1031.7299,35.9042
1033.6583,35.752
1035.5868,35.5934
1037.5153,35.428
1039.4437,35.2567
1041.3722,35.0814
1043.3007,34.904
1045.2291,34.726
1047.1576,34.5472
1049.0861,34.367
1051.0145,34.1839
1052.9430,33.9975
1054.8715,33.8084
1056.7999,33.6187
1058.7284,33.4313
1060.6569,33.2497
1062.5853,33.0774
1064.5138,32.917
1066.4423,32.7704
1068.3707,32.6382
1070.2992,32.521
1072.2277,32.4189
1074.1561,32.3333
1076.0846,32.2661
1078.0131,32.2198
1079.9415,32.1965
1081.8700,32.1972
1083.7985,32.2217
1085.7269,32.2693
1087.6554,32.3389
1089.5839,32.4305
1091.5123,32.5441
1093.4408,32.6803
1095.3693,32.8392
1097.2977,33.0204
1099.2262,33.2234
1101.1547,33.4476
1103.0831,33.692
1105.0116,33.956
1106.9401,34.2387
1108.8685,34.5393
1110.7970,34.8566
1112.7255,35.1889
1114.6539,35.5343
1116.5824,35.8909
1118.5109,36.2567
1120.4393,36.6296
1122.3678,37.0073
1124.2963,37.3875
1126.2247,37.7674
1128.1532,38.1451
1130.0817,38.5189
1132.0101,38.8883
1133.9386,39.2535
1135.8671,39.6147
1137.7955,39.9717
1139.7240,40.3238
1141.6525,40.6706
1143.5809,41.0125
1145.5094,41.3516
1147.4379,41.6907
1149.3663,42.0326
1151.2948,42.3782
1153.2233,42.7263
1155.1517,43.074
1157.0802,43.4184
1159.0087,43.758
1160.9371,44.0926
1162.8656,44.4225
1164.7941,44.7476
1166.7225,45.0668
1168.6510,45.3793
1170.5795,45.6851
1172.5079,45.9865
1174.4364,46.2878
1176.3649,46.5933
1178.2933,46.9068
1180.2218,47.2295
1182.1503,47.5602
1184.0787,47.8951
1186.0072,48.2293
1187.9357,48.5571
1189.8641,48.8742
1191.7926,49.1788
1193.7211,49.4724
1195.6495,49.7589
1197.5780,50.043
1199.5065,50.3272
1201.4349,50.6109
1203.3634,50.891
1205.2919,51.1648
1207.2203,51.4325
1209.1488,51.6982
1211.0773,51.9677
1213.0057,52.2454
1214.9342,52.5314
1216.8627,52.8223
1218.7911,53.1141
1220.7196,53.4054
1222.6481,53.6984
1224.5765,53.9967
1226.5050,54.3029
1228.4335,54.6157
1230.3619,54.9305
1232.2904,55.2403
1234.2189,55.5381
1236.1473,55.8185
1238.0758,56.0795
1240.0043,56.3225
1241.9327,56.551
1243.8612,56.7657
1245.7897,56.9579
1247.7181,57.1067
1249.6466,57.1839
1251.5751,57.1683
1253.5035,57.062
1255.4320,56.9014
1257.3605,56.7509
1259.2889,56.6827
1261.2174,56.7495
1263.1459,56.9658
1265.0743,57.307
1267.0028,57.7241
1268.9313,58.1647
1270.8597,58.5884
1272.7882,58.9687
1274.7167,59.2882
1276.6451,59.533
1278.5736,59.6939
1280.5021,59.7721
1282.4305,59.7827
1284.3590,59.7534
1286.2875,59.7148
1288.2159,59.6907
1290.1444,59.6909
1292.0729,59.7111
1294.0013,59.7382
1295.9298,59.7577
1297.8583,59.7599
1299.7867,59.7416
1301.7152,59.7009
1303.6437,59.6296
1305.5721,59.5094
1307.5006,59.3201
1309.4291,59.0562
1311.3575,58.7436
1313.2860,58.4393
1315.2145,58.2127
1317.1429,58.1176
1319.0714,58.1723
1320.9999,58.3566
1322.9283,58.618
1324.8568,58.876
1326.7853,59.024
1328.7137,58.9466
1330.6422,58.5651
1332.5707,57.8982
1334.4991,57.0945
1336.4276,56.3964
1338.3561,56.0358
1340.2845,56.1198
1342.2130,56.5811
1344.1415,57.2235
1346.0699,57.8266
1347.9984,58.2319
1349.9269,58.363
1351.8553,58.1952
1353.7838,57.7324
1355.7123,57.0267
1357.6407,56.2114
1359.5692,55.4885
1361.4977,55.0417
1363.4261,54.9276
1365.3546,55.0344
1367.2831,55.1581
1369.2115,55.1486
1371.1400,55.0145
1373.0685,54.9003
1374.9969,54.9579
1376.9254,55.2132
1378.8539,55.534
1380.7823,55.7135
1382.7108,55.5951
1384.6393,55.1425
1386.5677,54.4241
1388.4962,53.5508
1390.4247,52.6357
1392.3531,51.7979
1394.2816,51.1803
1396.2101,50.9353
1398.1385,51.1716
1400.0670,51.897
1401.9955,52.9968
1403.9240,54.2549
1405.8524,55.3939
1407.7809,56.1184
1409.7094,56.1738
1411.6378,55.4399
1413.5663,54.038
1415.4948,52.3736
1417.4232,51.0353
1419.3517,50.5477
1421.2802,51.0956
1423.2086,52.3911
1425.1371,53.7983
1427.0656,54.6636
1428.9940,54.6644
1430.9225,53.9655
1432.8510,53.0978
1434.7794,52.6476
1436.7079,52.9532
1438.6364,53.9703
1440.5648,55.3411
1442.4933,56.5752
1444.4218,57.2198
1446.3502,56.9604
1448.2787,55.6736
1450.2072,53.4798
1452.1356,50.7928
1454.0641,48.2905
1455.9926,46.732
1457.9210,46.6391
1459.8495,47.9922
1461.7780,50.1473
1463.7064,52.0913
1465.6349,52.9453
1467.5634,52.4435
1469.4918,51.0913
1471.4203,49.883
1473.3488,49.7352
1475.2772,50.9707
1477.2057,53.1541
1479.1342,55.3548
1481.0626,56.6517
1482.9911,56.5784
1484.9196,55.2851
1486.8480,53.3868
1488.7765,51.6315
1490.7050,50.5648
1492.6334,50.3181
1494.5619,50.5732
1496.4904,50.7095
1498.4188,50.0973
1500.3473,48.438
1502.2758,45.9838
1504.2042,43.4774
1506.1327,41.7863
1508.0612,41.4099
1509.9896,42.163
1511.9181,43.2667
1513.8466,43.8179
1515.7750,43.3494
1517.7035,42.1156
1519.6320,40.9253
1521.5604,40.6403
1523.4889,41.6633
1525.4174,43.7126
1527.3458,45.9706
1529.2743,47.4744
1531.2028,47.5263
1533.1312,45.963
1535.0597,43.227
1536.9882,40.2478
1538.9166,38.1531
1540.8451,37.8543
1542.7736,39.6259
1544.7020,42.8776
1546.6305,46.3015
1548.5590,48.4107
1550.4874,48.2493
1552.4159,45.9011
1554.3444,42.4936
1556.2728,39.6624
1558.2013,38.755
1560.1298,40.2055
1562.0582,43.4014
1563.9867,47.0803
1565.9152,49.9975
1567.8436,51.4964
1569.7721,51.7104
1571.7006,51.3586
1573.6290,51.3064
1575.5575,52.1407
1577.4860,53.9518
1579.4144,56.3761
1581.3429,58.8256
1583.2714,60.7705
1585.1998,61.9408
1587.1283,62.3779
1589.0568,62.3394
1590.9852,62.1308
1592.9137,61.9609
1594.8422,61.89
1596.7706,61.8733
1598.6991,61.8449
1600.6276,61.7697
1602.5560,61.6307
1604.4845,61.3801
1606.4130,60.9121
1608.3414,60.0973
1610.2699,58.8672
1612.1984,57.2949
1614.1268,55.6191
1616.0553,54.1893
1617.9838,53.3473
1619.9122,53.2863
1621.8407,53.9386
1623.7692,54.95
1625.6976,55.7831
1627.6261,55.9456
1629.5546,55.2524
1631.4830,53.9714
1633.4115,52.7195
1635.3400,52.1152
1637.2684,52.3662
1639.1969,53.061
1641.1254,53.3423
1643.0538,52.405
1644.9823,50.0288
1646.9108,46.8106
1648.8392,43.9333
1650.7677,42.5978
1652.6962,43.4415
1654.6246,46.2544
1656.5531,50.1069
1658.4816,53.7732
1660.4100,56.2186
1662.3385,56.9487
1664.2670,56.1187
1666.1954,54.4028
1668.1239,52.6758
1670.0524,51.6181
1671.9808,51.4051
1673.9093,51.6513
1675.8378,51.6817
1677.7662,51.005
1679.6947,49.6977
1681.6232,48.4152
1683.5516,47.9752
1685.4801,48.7636
1687.4086,50.3737
1689.3370,51.757
1691.2655,51.8273
1693.1940,50.1419
1695.1224,47.2291
1697.0509,44.3568
1698.9794,42.886
1700.9078,43.5834
1702.8363,46.257
1704.7648,49.8684
1706.6932,53.0306
1708.6217,54.6353
1710.5502,54.3344
1712.4786,52.6753
1714.4071,50.8338
1716.3356,50.0523
1718.2640,51.0283
1720.1925,53.5501
1722.1210,56.5795
1724.0494,58.7609
1725.9779,59.1037
1727.9064,57.4752
1729.8348,54.6419
1731.7633,51.8488
1733.6918,50.1814
1735.6202,50.0654
1737.5487,51.1555
1739.4772,52.6336
1741.4056,53.7079
1743.3341,54.0163
1745.2626,53.7298
1747.1910,53.3464
1749.1195,53.3482
1751.0480,53.9423
1752.9764,55.0148
1754.9049,56.2663
1756.8334,57.3887
1758.7618,58.1604
1760.6903,58.4417
1762.6188,58.1466
1764.5472,57.2727
1766.4757,55.9828
1768.4042,54.6479
1770.3326,53.7625
1772.2611,53.7389
1774.1896,54.6962
1776.1180,56.3792
1778.0465,58.2663
1779.9750,59.7973
1781.9034,60.5907
1783.8319,60.5467
1785.7604,59.8215
1787.6888,58.7273
1789.6173,57.6232
1791.5458,56.8266
1793.4742,56.547
1795.4027,56.8429
1797.3312,57.6136
1799.2596,58.6422
1801.1881,59.6806
1803.1166,60.5403
1805.0450,61.1504
1806.9735,61.5589
1808.9020,61.8836
1810.8304,62.2372
1812.7589,62.6554
1814.6874,63.0552
1816.6158,63.2476
1818.5443,63.0149
1820.4728,62.2344
1822.4012,60.9926
1824.3297,59.6167
1826.2582,58.575
1828.1866,58.2686
1830.1151,58.8114
1832.0436,59.9294
1833.9720,61.0604
1835.9005,61.6265
1837.8290,61.3405
1839.7574,60.3686
1841.6859,59.2462
1843.6144,58.5899
1845.5428,58.7763
1847.4713,59.7748
1849.3998,61.2174
1851.3282,62.6307
1853.2567,63.663
1855.1852,64.1713
1857.1136,64.161
1859.0421,63.682
1860.9706,62.7945
1862.8990,61.6252
1864.8275,60.4314
1866.7560,59.5718
1868.6844,59.3628
1870.6129,59.9054
1872.5414,61.0107
1874.4698,62.2833
1876.3983,63.3111
1878.3268,63.8413
1880.2552,63.844
1882.1837,63.4588
1884.1122,62.8889
1886.0406,62.3199
1887.9691,61.8913
1889.8976,61.6969
1891.8260,61.7776
1893.7545,62.1018
1895.6830,62.5585
1897.6115,62.9902
1899.5399,63.2593
1901.4684,63.3102
1903.3969,63.1825
1905.3253,62.9661
1907.2538,62.7296
1909.1823,62.4754
1911.1107,62.1547
1913.0392,61.7301
1914.9677,61.2394
1916.8961,60.8069
1918.8246,60.5913
1920.7531,60.701
1922.6815,61.133
1924.6100,61.7736
1926.5385,62.4525
1928.4669,63.0115
1930.3954,63.3452
1932.3239,63.4074
1934.2523,63.2016
1936.1808,62.7807
1938.1093,62.2535
1940.0377,61.7746
1941.9662,61.4993
1943.8947,61.5171
1945.8231,61.8055
1947.7516,62.2416
1949.6801,62.6679
1951.6085,62.9688
1953.5370,63.1078
1955.4655,63.1098
1957.3939,63.0147
1959.3224,62.8483
1961.2509,62.6291
1963.1793,62.3947
1965.1078,62.2103
1967.0363,62.1441
1968.9647,62.226
1970.8932,62.4256
1972.8217,62.6683
1974.7501,62.8765
1976.6786,63.0025
1978.6071,63.0308
1980.5355,62.9592
1982.4640,62.7841
1984.3925,62.5097
1986.3209,62.172
1988.2494,61.85
1990.1779,61.6418
1992.1063,61.6173
1994.0348,61.7767
1995.9633,62.0486
1997.8917,62.3285
1999.8202,62.533
2001.7487,62.6323
2003.6771,62.6441
2005.6056,62.6008
2007.5341,62.5207
2009.4625,62.4036
2011.3910,62.2499
2013.3195,62.0807
2015.2479,61.939
2017.1764,61.8689
2019.1049,61.8892
2021.0333,61.9813
2022.9618,62.1009
2024.8903,62.2031
2026.8187,62.2621
2028.7472,62.2746
2030.6757,62.2498
2032.6041,62.1967
2034.5326,62.1212
2036.4611,62.0309
2038.3895,61.9411
2040.3180,61.8718
2042.2465,61.8389
2044.1749,61.8449
2046.1034,61.8771
2048.0320,61.9152
2049.9604,61.9405
2051.8889,61.9415
2053.8174,61.9135
2055.7458,61.8562
2057.6743,61.7739
2059.6028,61.678
2061.5313,61.5872
2063.4597,61.523
2065.3882,61.499
2067.3167,61.5138
2069.2451,61.5508
2071.1736,61.5872
2073.1021,61.606
2075.0305,61.6023
2076.9590,61.5809
2078.8875,61.5487
2080.8159,61.5089
2082.7444,61.461
2084.6729,61.4052
2086.6013,61.3471
2088.5298,61.2962
2090.4583,61.2602
2092.3867,61.2405
2094.3152,61.2305
2096.2437,61.2201
2098.1721,61.2017
2100.1006,61.1733
2102.0291,61.1371
2103.9575,61.0962
2105.8860,61.0524
2107.8145,61.0054
2109.7429,60.9559
2111.6714,60.9061
2113.5999,60.8598
2115.5283,60.8202
2117.4568,60.788
2119.3853,60.7612
2121.3137,60.7364
2123.2422,60.7101
2125.1707,60.6801
2127.0991,60.6452
2129.0276,60.6059
2130.9561,60.5639
2132.8845,60.5222
2134.8130,60.4843
2136.7415,60.452
2138.6699,60.4245
2140.5984,60.3982
2142.5269,60.3678
2144.4553,60.3297
2146.3838,60.2829
2148.3123,60.229
2150.2407,60.1713
2152.1692,60.1121
2154.0977,60.0525
2156.0261,59.9924
2157.9546,59.9319
2159.8831,59.8718
2161.8115,59.8133
2163.7400,59.7573
2165.6685,59.7039
2167.5969,59.6521
2169.5254,59.6008
2171.4539,59.5492
2173.3823,59.497
2175.3108,59.4446
2177.2393,59.3924
2179.1677,59.3407
2181.0962,59.2898
2183.0247,59.24
2184.9531,59.1911
2186.8816,59.1427
2188.8101,59.0943
2190.7385,59.0454
2192.6670,58.9954
2194.5955,58.9442
2196.5239,58.8917
2198.4524,58.8377
2200.3809,58.7824
2202.3093,58.726
2204.2378,58.6684
2206.1663,58.61
2208.0947,58.5509
2210.0232,58.4915
2211.9517,58.4318
2213.8801,58.3718
2215.8086,58.3111
2217.7371,58.2492
2219.6655,58.1855
2221.5940,58.1197
2223.5225,58.0517
2225.4509,57.9815
2227.3794,57.9092
2229.3079,57.8351
2231.2363,57.7594
2233.1648,57.6823
2235.0933,57.6033
2237.0217,57.5219
2238.9502,57.4369
2240.8787,57.3474
2242.8071,57.2523
2244.7356,57.1501
2246.6641,57.0398
2248.5925,56.9204
2250.5210,56.7918
2252.4495,56.6545
2254.3779,56.5097
2256.3064,56.3587
2258.2349,56.2038
2260.1633,56.048
2262.0918,55.8955
2264.0203,55.75
2265.9487,55.6148
2267.8772,55.4933
2269.8057,55.3903
2271.7341,55.312
2273.6626,55.2629
2275.5911,55.2395
2277.5195,55.2257
2279.4480,55.1926
2281.3765,55.1057
2283.3049,54.9353
2285.2334,54.6652
2287.1619,54.2963
2289.0903,53.8431
2291.0188,53.3261
2292.9473,52.7619
2294.8757,52.154
2296.8042,51.4874
2298.7327,50.7308
2300.6611,49.8476
2302.5896,48.8103
2304.5181,47.6119
2306.4465,46.265
2308.3750,44.7919
2310.3035,43.2124
2312.2319,41.5416
2314.1604,39.7956
2316.0889,38.002
2318.0173,36.2022
2319.9458,34.4474
2321.8743,32.7908
2323.8027,31.2814
2325.7312,29.9582
2327.6597,28.839
2329.5881,27.9089
2331.5166,27.1264
2333.4451,26.4584
2335.3735,25.9349
2337.3020,25.6778
2339.2305,25.8593
2341.1589,26.5836
2343.0874,27.7523
2345.0159,29.0101
2346.9443,29.8391
2348.8728,29.7752
2350.8013,28.6348
2352.7297,26.6184
2354.6582,24.2278
2356.5867,22.0484
2358.5151,20.5244
2360.4436,19.8455
2362.3721,19.9785
2364.3005,20.7907
2366.2290,22.1678
2368.1575,24.0617
2370.0859,26.4637
2372.0144,29.344
2373.9429,32.6047
2375.8713,36.0696
2377.7998,39.5077
2379.7283,42.6757
2381.6567,45.3661
2383.5852,47.4485
2385.5137,48.8931
2387.4421,49.7676
2389.3706,50.2059
2391.2991,50.3607
2393.2275,50.3622
2395.1560,50.2959
2397.0845,50.2056
2399.0129,50.1077
2400.9414,50.007
2402.8699,49.9054
2404.7983,49.8037
2406.7268,49.7018
2408.6553,49.5992
2410.5837,49.4959
2412.5122,49.3928
2414.4407,49.2902
2416.3691,49.1879
2418.2976,49.085
2420.2261,48.9812
2422.1545,48.8768
2424.0830,48.7725
2426.0115,48.6687
2427.9399,48.5652
2429.8684,48.4619
2431.7969,48.3586
2433.7253,48.2555
2435.6538,48.1526
2437.5823,48.0497
2439.5107,47.9467
2441.4392,47.8437
2443.3677,47.7409
2445.2961,47.6384
2447.2246,47.536
2449.1531,47.4337
2451.0815,47.3313
2453.0100,47.2291
2454.9385,47.1274
2456.8669,47.026
2458.7954,46.9249
2460.7239,46.8238
2462.6523,46.7225
2464.5808,46.6212
2466.5093,46.52
2468.4377,46.4188
2470.3662,46.318
2472.2947,46.2175
2474.2231,46.1175
2476.1516,46.0179
2478.0801,45.9184
2480.0085,45.8188
2481.9370,45.7188
2483.8655,45.6187
2485.7939,45.5187
2487.7224,45.4191
2489.6509,45.3199
2491.5793,45.2209
2493.5078,45.1218
2495.4363,45.0224
2497.3647,44.9226
2499.2932,44.8226
2501.2217,44.7229
2503.1501,44.6237
2505.0786,44.5252
2507.0071,44.427
2508.9355,44.3289
2510.8640,44.2303
2512.7925,44.1313
2514.7209,44.0322
2516.6494,43.9334
2518.5779,43.8353
2520.5063,43.7379
2522.4348,43.6411
2524.3633,43.5444
2526.2917,43.4478
2528.2202,43.3511
2530.1487,43.2545
2532.0771,43.1581
2534.0056,43.062
2535.9341,42.9664
2537.8625,42.8712
2539.7910,42.7763
2541.7195,42.6815
2543.6479,42.5869
2545.5764,42.4924
2547.5049,42.3981
2549.4333,42.3042
2551.3618,42.2105
2553.2903,42.117
2555.2188,42.0235
2557.1472,41.93
2559.0757,41.8364
2561.0042,41.743
2562.9326,41.6497
2564.8611,41.5568
2566.7896,41.4643
2568.7180,41.3721
2570.6465,41.2801
2572.5750,41.1882
2574.5034,41.0963
2576.4319,41.0046
2578.3604,40.9131
2580.2888,40.8218
2582.2173,40.7308
2584.1458,40.64
2586.0742,40.5496
2588.0027,40.4593
2589.9312,40.3693
2591.8596,40.2795
2593.7881,40.1898
2595.7166,40.1004
2597.6450,40.0113
2599.5735,39.9226
2601.5020,39.8341
2603.4304,39.7459
2605.3589,39.658
2607.2874,39.5705
2609.2158,39.4834
2611.1443,39.3968
2613.0728,39.3106
2615.0012,39.2246
2616.9297,39.1387
2618.8582,39.0528
2620.7866,38.9671
2622.7151,38.8818
2624.6436,38.797
2626.5720,38.7125
2628.5005,38.6282
2630.4290,38.5439
2632.3574,38.4598
2634.2859,38.3761
2636.2144,38.293
2638.1428,38.2106
2640.0713,38.1287
2641.9998,38.0474
2643.9282,37.9662
2645.8567,37.8854
2647.7852,37.8049
2649.7136,37.7247
2651.6421,37.6445
2653.5706,37.564
2655.4990,37.4833
2657.4275,37.4025
2659.3560,37.322
2661.2844,37.2423
2663.2129,37.1635
2665.1414,37.0852
2667.0698,37.0068
2668.9983,36.9279
2670.9268,36.8484
2672.8552,36.769
2674.7837,36.6906
2676.7122,36.6138
2678.6406,36.5389
2680.5691,36.4653
2682.4976,36.3921
2684.4260,36.3187
2686.3545,36.2447
2688.2830,36.1704
2690.2114,36.0962
2692.1399,36.0224
2694.0684,35.9493
2695.9968,35.8766
2697.9253,35.8041
2699.8538,35.7315
2701.7822,35.6588
2703.7107,35.586
2705.6392,35.5136
2707.5676,35.4417
2709.4961,35.3701
2711.4246,35.2985
2713.3530,35.2262
2715.2815,35.1529
2717.2100,35.0792
2719.1384,35.0058
2721.0669,34.934
2722.9954,34.8641
2724.9238,34.796
2726.8523,34.7289
2728.7808,34.6619
2730.7092,34.5949
2732.6377,34.5278
2734.5662,34.4609
2736.4946,34.394
2738.4231,34.3265
2740.3516,34.2581
2742.2800,34.1889
2744.2085,34.1198
2746.1370,34.0517
2748.0654,33.9852
2749.9939,33.9201
2751.9224,33.8554
2753.8508,33.7903
2755.7793,33.7246
2757.7078,33.6588
2759.6362,33.5933
2761.5647,33.528
2763.4932,33.4626
2765.4216,33.3962
2767.3501,33.3288
2769.2786,33.2608
2771.2070,33.1935
2773.1355,33.1277
2775.0640,33.0634
2776.9924,32.9998
2778.9209,32.9358
2780.8494,32.8709
2782.7778,32.8049
2784.7063,32.7383
2786.6348,32.672
2788.5632,32.6062
2790.4917,32.5413
2792.4202,32.4774
2794.3486,32.4146
2796.2771,32.3529
2798.2056,32.2921
2800.1340,32.2314
2802.0625,32.1705
2803.9910,32.1089
2805.9194,32.0469
2807.8479,31.9851
2809.7764,31.9237
2811.7048,31.8626
2813.6333,31.8012
2815.5618,31.7392
2817.4902,31.6764
2819.4187,31.6134
2821.3472,31.5505
2823.2756,31.4872
2825.2041,31.4224
2827.1326,31.3548
2829.0610,31.2837
2830.9895,31.2091
2832.9180,31.1313
2834.8464,31.0485
2836.7749,30.9573
2838.7034,30.8528
2840.6318,30.7322
2842.5603,30.5982
2844.4888,30.4598
2846.4172,30.3305
2848.3457,30.2236
2850.2742,30.1475
2852.2026,30.1025
2854.1311,30.0823
2856.0596,30.0768
2857.9880,30.0757
2859.9165,30.0713
2861.8450,30.0587
2863.7734,30.0364
2865.7019,30.0049
2867.6304,29.9669
2869.5588,29.9257
2871.4873,29.8843
2873.4158,29.8441
2875.3442,29.8046
2877.2727,29.7635
2879.2012,29.7187
2881.1296,29.6684
2883.0581,29.612
2884.9866,29.5499
2886.9150,29.4828
2888.8435,29.4115
2890.7720,29.3368
2892.7004,29.26
2894.6289,29.182
2896.5574,29.1034
2898.4858,29.0241
2900.4143,28.9426
2902.3428,28.8559
2904.2712,28.7605
2906.1997,28.653
2908.1282,28.5323
2910.0566,28.4009
2911.9851,28.2652
2913.9136,28.1348
2915.8420,28.0195
2917.7705,27.9268
2919.6990,27.8603
2921.6274,27.8195
2923.5559,27.8014
2925.4844,27.8014
2927.4128,27.8152
2929.3413,27.8383
2931.2698,27.8664
2933.1982,27.8954
2935.1267,27.9214
2937.0552,27.9415
2938.9836,27.953
2940.9121,27.954
2942.8406,27.9421
2944.7690,27.9155
2946.6975,27.8735
2948.6260,27.8167
2950.5544,27.7478
2952.4829,27.6711
2954.4114,27.592
2956.3398,27.5165
2958.2683,27.4504
2960.1968,27.3989
2962.1252,27.3657
2964.0537,27.3518
2965.9822,27.3547
2967.9106,27.3689
2969.8391,27.3876
2971.7676,27.4045
2973.6960,27.4162
2975.6245,27.4215
2977.5530,27.4209
2979.4814,27.4149
2981.4099,27.4029
2983.3384,27.3838
2985.2668,27.3568
2987.1953,27.323
2989.1238,27.2848
2991.0522,27.2454
2992.9807,27.2071
2994.9092,27.1706
2996.8376,27.1349
2998.7661,27.0973
3000.6946,27.0543
3002.6230,27.0026
3004.5515,26.9407
