TITLE,test
DATA TYPE,INFRARED SPECTRUM
ORIGIN,JASCO
OWNER,test
DATE,26/02/12
TIME,12:27:47
SPECTROMETER/DATA SYSTEM,
LOCALE,1041
RESOLUTION,
DELTAX,1.92847
XUNITS,1/CM
YUNITS,REFLECTANCE
FIRSTX,  998.9459
LASTX, 6001.3891
NPOINTS,    2595
FIRSTY,   100.11481
MAXY,   100.17418
MINY,    99.96335
XYDATA
998.9459,100.115
1000.8743,100.118
1002.8028,100.12
1004.7313,100.122
1006.6597,100.123
1008.5882,100.121
1010.5167,100.118
1012.4451,100.113
1014.3736,100.108
1016.3021,100.106
1018.2305,100.107
1020.1590,100.112
1022.0875,100.119
1024.0160,100.124
1025.9445,100.126
1027.8729,100.126
1029.8014,100.125
1031.7299,100.126
1033.6583,100.129
1035.5868,100.134
1037.5153,100.138
1039.4437,100.14
1041.3722,100.138
1043.3007,100.135
1045.2291,100.132
1047.1576,100.132
1049.0861,100.135
1051.0145,100.14
1052.9430,100.145
1054.8715,100.148
1056.7999,100.147
1058.7284,100.145
1060.6569,100.143
1062.5853,100.142
1064.5138,100.145
1066.4423,100.151
1068.3707,100.158
1070.2992,100.166
1072.2277,100.171
1074.1561,100.174
1076.0846,100.174
1078.0131,100.172
1079.9415,100.169
1081.8700,100.164
1083.7985,100.161
1085.7269,100.158
1087.6554,100.156
1089.5839,100.155
1091.5123,100.154
1093.4408,100.153
1095.3693,100.152
1097.2977,100.152
1099.2262,100.154
1101.1547,100.157
1103.0831,100.162
1105.0116,100.165
1106.9401,100.166
1108.8685,100.164
1110.7970,100.159
1112.7255,100.154
1114.6539,100.15
1116.5824,100.15
1118.5109,100.151
1120.4393,100.153
1122.3678,100.154
1124.2963,100.153
1126.2247,100.15
1128.1532,100.147
1130.0817,100.144
1132.0101,100.142
1133.9386,100.142
1135.8671,100.143
1137.7955,100.144
1139.7240,100.143
1141.6525,100.141
1143.5809,100.139
1145.5094,100.137
1147.4379,100.137
1149.3663,100.138
1151.2948,100.14
1153.2233,100.141
1155.1517,100.141
1157.0802,100.139
1159.0087,100.138
1160.9371,100.137
1162.8656,100.137
1164.7941,100.137
1166.7225,100.137
1168.6510,100.137
1170.5795,100.134
1172.5079,100.131
1174.4364,100.126
1176.3649,100.122
1178.2933,100.119
1180.2218,100.117
1182.1503,100.116
1184.0787,100.116
1186.0072,100.117
1187.9357,100.117
1189.8641,100.116
1191.7926,100.115
1193.7211,100.115
1195.6495,100.115
1197.5780,100.116
1199.5065,100.117
1201.4349,100.118
1203.3634,100.118
1205.2919,100.116
1207.2203,100.114
1209.1488,100.112
1211.0773,100.112
1213.0057,100.112
1214.9342,100.113
1216.8627,100.113
1218.7911,100.113
1220.7196,100.111
1222.6481,100.109
1224.5765,100.108
1226.5050,100.108
1228.4335,100.109
1230.3619,100.111
1232.2904,100.113
1234.2189,100.114
1236.1473,100.115
1238.0758,100.113
1240.0043,100.109
1241.9327,100.105
1243.8612,100.102
1245.7897,100.101
1247.7181,100.101
1249.6466,100.103
1251.5751,100.104
1253.5035,100.104
1255.4320,100.103
1257.3605,100.101
1259.2889,100.099
1261.2174,100.097
1263.1459,100.096
1265.0743,100.096
1267.0028,100.096
1268.9313,100.096
1270.8597,100.096
1272.7882,100.097
1274.7167,100.097
1276.6451,100.098
1278.5736,100.098
1280.5021,100.097
1282.4305,100.096
1284.3590,100.095
1286.2875,100.095
1288.2159,100.096
1290.1444,100.098
1292.0729,100.099
1294.0013,100.1
1295.9298,100.1
1297.8583,100.1
1299.7867,100.099
1301.7152,100.099
1303.6437,100.099
1305.5721,100.098
1307.5006,100.097
1309.4291,100.095
1311.3575,100.094
1313.2860,100.092
1315.2145,100.091
1317.1429,100.091
1319.0714,100.091
1320.9999,100.092
1322.9283,100.093
1324.8568,100.094
1326.7853,100.094
1328.7137,100.094
1330.6422,100.094
1332.5707,100.094
1334.4991,100.094
1336.4276,100.093
1338.3561,100.093
1340.2845,100.093
1342.2130,100.095
1344.1415,100.096
1346.0699,100.097
1347.9984,100.098
1349.9269,100.098
1351.8553,100.097
1353.7838,100.096
1355.7123,100.096
1357.6407,100.095
1359.5692,100.096
1361.4977,100.097
1363.4261,100.098
1365.3546,100.1
1367.2831,100.1
1369.2115,100.1
1371.1400,100.099
1373.0685,100.098
1374.9969,100.098
1376.9254,100.098
1378.8539,100.1
1380.7823,100.102
1382.7108,100.104
1384.6393,100.105
1386.5677,100.103
1388.4962,100.1
1390.4247,100.097
1392.3531,100.094
1394.2816,100.093
1396.2101,100.092
1398.1385,100.093
1400.0670,100.094
1401.9955,100.095
1403.9240,100.097
1405.8524,100.099
1407.7809,100.1
1409.7094,100.1
1411.6378,100.098
1413.5663,100.095
1415.4948,100.091
1417.4232,100.088
1419.3517,100.086
1421.2802,100.086
1423.2086,100.087
1425.1371,100.088
1427.0656,100.088
1428.9940,100.087
1430.9225,100.087
1432.8510,100.087
1434.7794,100.089
1436.7079,100.09
1438.6364,100.092
1440.5648,100.092
1442.4933,100.092
1444.4218,100.092
1446.3502,100.09
1448.2787,100.088
1450.2072,100.086
1452.1356,100.083
1454.0641,100.08
1455.9926,100.079
1457.9210,100.079
1459.8495,100.08
1461.7780,100.083
1463.7064,100.084
1465.6349,100.085
1467.5634,100.084
1469.4918,100.083
1471.4203,100.081
1473.3488,100.081
1475.2772,100.083
1477.2057,100.085
1479.1342,100.088
1481.0626,100.088
1482.9911,100.088
1484.9196,100.085
1486.8480,100.082
1488.7765,100.079
1490.7050,100.076
1492.6334,100.073
1494.5619,100.072
1496.4904,100.07
1498.4188,100.067
1500.3473,100.063
1502.2758,100.058
1504.2042,100.053
1506.1327,100.049
1508.0612,100.049
1509.9896,100.051
1511.9181,100.055
1513.8466,100.058
1515.7750,100.059
1517.7035,100.058
1519.6320,100.056
1521.5604,100.057
1523.4889,100.06
1525.4174,100.065
1527.3458,100.07
1529.2743,100.072
1531.2028,100.072
1533.1312,100.069
1535.0597,100.063
1536.9882,100.057
1538.9166,100.053
1540.8451,100.054
1542.7736,100.058
1544.7020,100.064
1546.6305,100.069
1548.5590,100.071
1550.4874,100.071
1552.4159,100.069
1554.3444,100.067
1556.2728,100.066
1558.2013,100.068
1560.1298,100.071
1562.0582,100.075
1563.9867,100.077
1565.9152,100.078
1567.8436,100.078
1569.7721,100.077
1571.7006,100.079
1573.6290,100.082
1575.5575,100.086
1577.4860,100.091
1579.4144,100.094
1581.3429,100.095
1583.2714,100.095
1585.1998,100.093
1587.1283,100.091
1589.0568,100.089
1590.9852,100.089
1592.9137,100.089
1594.8422,100.09
1596.7706,100.09
1598.6991,100.091
1600.6276,100.091
1602.5560,100.091
1604.4845,100.091
1606.4130,100.09
1608.3414,100.088
1610.2699,100.085
1612.1984,100.083
1614.1268,100.081
1616.0553,100.08
1617.9838,100.079
1619.9122,100.078
1621.8407,100.076
1623.7692,100.075
1625.6976,100.073
1627.6261,100.071
1629.5546,100.07
1631.4830,100.069
1633.4115,100.068
1635.3400,100.068
1637.2684,100.069
1639.1969,100.07
1641.1254,100.07
1643.0538,100.068
1644.9823,100.063
1646.9108,100.057
1648.8392,100.051
1650.7677,100.048
1652.6962,100.051
1654.6246,100.057
1656.5531,100.065
1658.4816,100.07
1660.4100,100.071
1662.3385,100.07
1664.2670,100.067
1666.1954,100.063
1668.1239,100.059
1670.0524,100.057
1671.9808,100.056
1673.9093,100.057
1675.8378,100.057
1677.7662,100.057
1679.6947,100.057
1681.6232,100.057
1683.5516,100.058
1685.4801,100.062
1687.4086,100.065
1689.3370,100.068
1691.2655,100.068
1693.1940,100.065
1695.1224,100.061
1697.0509,100.056
1698.9794,100.052
1700.9078,100.053
1702.8363,100.059
1704.7648,100.065
1706.6932,100.07
1708.6217,100.073
1710.5502,100.073
1712.4786,100.07
1714.4071,100.067
1716.3356,100.067
1718.2640,100.071
1720.1925,100.076
1722.1210,100.082
1724.0494,100.084
1725.9779,100.083
1727.9064,100.079
1729.8348,100.074
1731.7633,100.069
1733.6918,100.066
1735.6202,100.066
1737.5487,100.068
1739.4772,100.069
1741.4056,100.069
1743.3341,100.068
1745.2626,100.067
1747.1910,100.067
1749.1195,100.068
1751.0480,100.071
1752.9764,100.074
1754.9049,100.077
1756.8334,100.08
1758.7618,100.082
1760.6903,100.082
1762.6188,100.082
1764.5472,100.08
1766.4757,100.077
1768.4042,100.074
1770.3326,100.071
1772.2611,100.069
1774.1896,100.07
1776.1180,100.071
1778.0465,100.074
1779.9750,100.076
1781.9034,100.077
1783.8319,100.077
1785.7604,100.076
1787.6888,100.073
1789.6173,100.072
1791.5458,100.071
1793.4742,100.071
1795.4027,100.073
1797.3312,100.076
1799.2596,100.077
1801.1881,100.079
1803.1166,100.079
1805.0450,100.08
1806.9735,100.08
1808.9020,100.08
1810.8304,100.081
1812.7589,100.082
1814.6874,100.083
1816.6158,100.083
1818.5443,100.083
1820.4728,100.082
1822.4012,100.08
1824.3297,100.077
1826.2582,100.075
1828.1866,100.074
1830.1151,100.076
1832.0436,100.078
1833.9720,100.081
1835.9005,100.082
1837.8290,100.082
1839.7574,100.08
1841.6859,100.079
1843.6144,100.078
1845.5428,100.079
1847.4713,100.081
1849.3998,100.083
1851.3282,100.085
1853.2567,100.086
1855.1852,100.086
1857.1136,100.086
1859.0421,100.085
1860.9706,100.083
1862.8990,100.081
1864.8275,100.08
1866.7560,100.079
1868.6844,100.079
1870.6129,100.08
1872.5414,100.083
1874.4698,100.086
1876.3983,100.089
1878.3268,100.09
1880.2552,100.09
1882.1837,100.089
1884.1122,100.087
1886.0406,100.085
1887.9691,100.083
1889.8976,100.083
1891.8260,100.083
1893.7545,100.085
1895.6830,100.086
1897.6115,100.088
1899.5399,100.089
1901.4684,100.089
1903.3969,100.088
1905.3253,100.088
1907.2538,100.087
1909.1823,100.086
1911.1107,100.085
1913.0392,100.085
1914.9677,100.084
1916.8961,100.083
1918.8246,100.083
1920.7531,100.083
1922.6815,100.082
1924.6100,100.082
1926.5385,100.083
1928.4669,100.084
1930.3954,100.085
1932.3239,100.087
1934.2523,100.088
1936.1808,100.088
1938.1093,100.088
1940.0377,100.088
1941.9662,100.087
1943.8947,100.088
1945.8231,100.09
1947.7516,100.091
1949.6801,100.092
1951.6085,100.092
1953.5370,100.092
1955.4655,100.09
1957.3939,100.089
1959.3224,100.087
1961.2509,100.087
1963.1793,100.087
1965.1078,100.088
1967.0363,100.089
1968.9647,100.09
1970.8932,100.09
1972.8217,100.09
1974.7501,100.09
1976.6786,100.091
1978.6071,100.092
1980.5355,100.093
1982.4640,100.093
1984.3925,100.092
1986.3209,100.09
1988.2494,100.088
1990.1779,100.088
1992.1063,100.088
1994.0348,100.089
1995.9633,100.091
1997.8917,100.093
1999.8202,100.094
2001.7487,100.095
2003.6771,100.095
2005.6056,100.094
2007.5341,100.093
2009.4625,100.091
2011.3910,100.089
2013.3195,100.087
2015.2479,100.086
2017.1764,100.087
2019.1049,100.087
2021.0333,100.087
2022.9618,100.087
2024.8903,100.087
2026.8187,100.088
2028.7472,100.088
2030.6757,100.09
2032.6041,100.091
2034.5326,100.091
2036.4611,100.091
2038.3895,100.091
2040.3180,100.09
2042.2465,100.089
2044.1749,100.088
2046.1034,100.088
2048.0320,100.088
2049.9604,100.087
2051.8889,100.087
2053.8174,100.088
2055.7458,100.088
2057.6743,100.089
2059.6028,100.089
2061.5313,100.089
2063.4597,100.088
2065.3882,100.086
2067.3167,100.086
2069.2451,100.086
2071.1736,100.087
2073.1021,100.088
2075.0305,100.089
2076.9590,100.09
2078.8875,100.091
2080.8159,100.091
2082.7444,100.091
2084.6729,100.091
2086.6013,100.09
2088.5298,100.089
2090.4583,100.089
2092.3867,100.089
2094.3152,100.091
2096.2437,100.092
2098.1721,100.093
2100.1006,100.094
2102.0291,100.094
2103.9575,100.093
2105.8860,100.093
2107.8145,100.092
2109.7429,100.092
2111.6714,100.092
2113.5999,100.091
2115.5283,100.091
2117.4568,100.091
2119.3853,100.091
2121.3137,100.092
2123.2422,100.092
2125.1707,100.092
2127.0991,100.091
2129.0276,100.091
2130.9561,100.092
2132.8845,100.093
2134.8130,100.094
2136.7415,100.095
2138.6699,100.095
2140.5984,100.095
2142.5269,100.095
2144.4553,100.094
2146.3838,100.092
2148.3123,100.089
2150.2407,100.087
2152.1692,100.085
2154.0977,100.084
2156.0261,100.085
2157.9546,100.088
2159.8831,100.091
2161.8115,100.093
2163.7400,100.094
2165.6685,100.094
2167.5969,100.093
2169.5254,100.091
2171.4539,100.089
2173.3823,100.089
2175.3108,100.089
2177.2393,100.09
2179.1677,100.092
2181.0962,100.093
2183.0247,100.093
2184.9531,100.092
2186.8816,100.091
2188.8101,100.09
2190.7385,100.089
2192.6670,100.088
2194.5955,100.087
2196.5239,100.086
2198.4524,100.086
2200.3809,100.085
2202.3093,100.085
2204.2378,100.085
2206.1663,100.085
2208.0947,100.086
2210.0232,100.086
2211.9517,100.087
2213.8801,100.088
2215.8086,100.089
2217.7371,100.089
2219.6655,100.089
2221.5940,100.088
2223.5225,100.087
2225.4509,100.087
2227.3794,100.087
2229.3079,100.088
2231.2363,100.089
2233.1648,100.09
2235.0933,100.09
2237.0217,100.09
2238.9502,100.09
2240.8787,100.09
2242.8071,100.09
2244.7356,100.09
2246.6641,100.09
2248.5925,100.09
2250.5210,100.089
2252.4495,100.089
2254.3779,100.088
2256.3064,100.088
2258.2349,100.088
2260.1633,100.088
2262.0918,100.088
2264.0203,100.089
2265.9487,100.09
2267.8772,100.09
2269.8057,100.091
2271.7341,100.091
2273.6626,100.091
2275.5911,100.092
2277.5195,100.092
2279.4480,100.092
2281.3765,100.091
2283.3049,100.089
2285.2334,100.088
2287.1619,100.086
2289.0903,100.086
2291.0188,100.086
2292.9473,100.086
2294.8757,100.086
2296.8042,100.086
2298.7327,100.085
2300.6611,100.084
2302.5896,100.083
2304.5181,100.083
2306.4465,100.082
2308.3750,100.082
2310.3035,100.082
2312.2319,100.081
2314.1604,100.08
2316.0889,100.079
2318.0173,100.077
2319.9458,100.074
2321.8743,100.071
2323.8027,100.067
2325.7312,100.063
2327.6597,100.058
2329.5881,100.054
2331.5166,100.052
2333.4451,100.052
2335.3735,100.053
2337.3020,100.056
2339.2305,100.06
2341.1589,100.063
2343.0874,100.066
2345.0159,100.068
2346.9443,100.068
2348.8728,100.067
2350.8013,100.064
2352.7297,100.061
2354.6582,100.058
2356.5867,100.056
2358.5151,100.054
2360.4436,100.054
2362.3721,100.055
2364.3005,100.055
2366.2290,100.057
2368.1575,100.06
2370.0859,100.064
2372.0144,100.069
2373.9429,100.074
2375.8713,100.079
2377.7998,100.083
2379.7283,100.086
2381.6567,100.088
2383.5852,100.09
2385.5137,100.09
2387.4421,100.089
2389.3706,100.088
2391.2991,100.088
2393.2275,100.087
2395.1560,100.087
2397.0845,100.087
2399.0129,100.088
2400.9414,100.088
2402.8699,100.087
2404.7983,100.086
2406.7268,100.084
2408.6553,100.083
2410.5837,100.082
2412.5122,100.082
2414.4407,100.082
2416.3691,100.082
2418.2976,100.082
2420.2261,100.082
2422.1545,100.083
2424.0830,100.084
2426.0115,100.085
2427.9399,100.086
2429.8684,100.086
2431.7969,100.086
2433.7253,100.085
2435.6538,100.084
2437.5823,100.083
2439.5107,100.083
2441.4392,100.083
2443.3677,100.084
2445.2961,100.085
2447.2246,100.086
2449.1531,100.086
2451.0815,100.087
2453.0100,100.086
2454.9385,100.085
2456.8669,100.085
2458.7954,100.085
2460.7239,100.084
2462.6523,100.084
2464.5808,100.083
2466.5093,100.081
2468.4377,100.08
2470.3662,100.08
2472.2947,100.08
2474.2231,100.081
2476.1516,100.081
2478.0801,100.082
2480.0085,100.082
2481.9370,100.082
2483.8655,100.081
2485.7939,100.08
2487.7224,100.079
2489.6509,100.079
2491.5793,100.08
2493.5078,100.081
2495.4363,100.082
2497.3647,100.082
2499.2932,100.082
2501.2217,100.081
2503.1501,100.08
2505.0786,100.08
2507.0071,100.08
2508.9355,100.082
2510.8640,100.083
2512.7925,100.084
2514.7209,100.084
2516.6494,100.083
2518.5779,100.082
2520.5063,100.08
2522.4348,100.08
2524.3633,100.08
2526.2917,100.081
2528.2202,100.083
2530.1487,100.084
2532.0771,100.085
2534.0056,100.085
2535.9341,100.084
2537.8625,100.083
2539.7910,100.082
2541.7195,100.081
2543.6479,100.081
2545.5764,100.082
2547.5049,100.082
2549.4333,100.083
2551.3618,100.083
2553.2903,100.083
2555.2188,100.082
2557.1472,100.081
2559.0757,100.08
2561.0042,100.079
2562.9326,100.078
2564.8611,100.077
2566.7896,100.078
2568.7180,100.079
2570.6465,100.082
2572.5750,100.084
2574.5034,100.087
2576.4319,100.088
2578.3604,100.089
2580.2888,100.09
2582.2173,100.09
2584.1458,100.089
2586.0742,100.086
2588.0027,100.083
2589.9312,100.081
2591.8596,100.079
2593.7881,100.079
2595.7166,100.08
2597.6450,100.082
2599.5735,100.083
2601.5020,100.084
2603.4304,100.083
2605.3589,100.083
2607.2874,100.083
2609.2158,100.083
2611.1443,100.084
2613.0728,100.085
2615.0012,100.086
2616.9297,100.085
2618.8582,100.083
2620.7866,100.081
2622.7151,100.079
2624.6436,100.079
2626.5720,100.079
2628.5005,100.079
2630.4290,100.079
2632.3574,100.078
2634.2859,100.078
2636.2144,100.077
2638.1428,100.077
2640.0713,100.077
2641.9998,100.077
2643.9282,100.077
2645.8567,100.077
2647.7852,100.076
2649.7136,100.075
2651.6421,100.076
2653.5706,100.076
2655.4990,100.078
2657.4275,100.079
2659.3560,100.079
2661.2844,100.079
2663.2129,100.078
2665.1414,100.077
2667.0698,100.075
2668.9983,100.074
2670.9268,100.072
2672.8552,100.07
2674.7837,100.068
2676.7122,100.066
2678.6406,100.066
2680.5691,100.066
2682.4976,100.067
2684.4260,100.068
2686.3545,100.07
2688.2830,100.071
2690.2114,100.072
2692.1399,100.072
2694.0684,100.072
2695.9968,100.073
2697.9253,100.073
2699.8538,100.073
2701.7822,100.073
2703.7107,100.073
2705.6392,100.072
2707.5676,100.071
2709.4961,100.07
2711.4246,100.071
2713.3530,100.072
2715.2815,100.074
2717.2100,100.075
2719.1384,100.075
2721.0669,100.074
2722.9954,100.073
2724.9238,100.072
2726.8523,100.071
2728.7808,100.071
2730.7092,100.071
2732.6377,100.072
2734.5662,100.073
2736.4946,100.073
2738.4231,100.074
2740.3516,100.075
2742.2800,100.076
2744.2085,100.077
2746.1370,100.078
2748.0654,100.078
2749.9939,100.078
2751.9224,100.078
2753.8508,100.077
2755.7793,100.077
2757.7078,100.077
2759.6362,100.077
2761.5647,100.078
2763.4932,100.078
2765.4216,100.078
2767.3501,100.078
2769.2786,100.078
2771.2070,100.078
2773.1355,100.077
2775.0640,100.077
2776.9924,100.076
2778.9209,100.075
2780.8494,100.074
2782.7778,100.074
2784.7063,100.073
2786.6348,100.074
2788.5632,100.075
2790.4917,100.076
2792.4202,100.076
2794.3486,100.076
2796.2771,100.075
2798.2056,100.073
2800.1340,100.071
2802.0625,100.069
2803.9910,100.068
2805.9194,100.068
2807.8479,100.067
2809.7764,100.067
2811.7048,100.067
2813.6333,100.068
2815.5618,100.069
2817.4902,100.07
2819.4187,100.071
2821.3472,100.072
2823.2756,100.072
2825.2041,100.071
2827.1326,100.07
2829.0610,100.069
2830.9895,100.067
2832.9180,100.065
2834.8464,100.063
2836.7749,100.062
2838.7034,100.061
2840.6318,100.06
2842.5603,100.061
2844.4888,100.061
2846.4172,100.063
2848.3457,100.064
2850.2742,100.067
2852.2026,100.07
2854.1311,100.073
2856.0596,100.076
2857.9880,100.077
2859.9165,100.076
2861.8450,100.074
2863.7734,100.071
2865.7019,100.068
2867.6304,100.066
2869.5588,100.067
2871.4873,100.068
2873.4158,100.071
2875.3442,100.074
2877.2727,100.076
2879.2012,100.078
2881.1296,100.079
2883.0581,100.079
2884.9866,100.078
2886.9150,100.076
2888.8435,100.075
2890.7720,100.074
2892.7004,100.073
2894.6289,100.073
2896.5574,100.074
2898.4858,100.075
2900.4143,100.077
2902.3428,100.078
2904.2712,100.079
2906.1997,100.079
2908.1282,100.079
2910.0566,100.079
2911.9851,100.079
2913.9136,100.079
2915.8420,100.079
2917.7705,100.079
2919.6990,100.079
2921.6274,100.079
2923.5559,100.079
2925.4844,100.079
2927.4128,100.079
2929.3413,100.08
2931.2698,100.079
2933.1982,100.079
2935.1267,100.079
2937.0552,100.079
2938.9836,100.079
2940.9121,100.079
2942.8406,100.079
2944.7690,100.079
2946.6975,100.079
2948.6260,100.08
2950.5544,100.081
2952.4829,100.082
2954.4114,100.084
2956.3398,100.084
2958.2683,100.083
2960.1968,100.082
2962.1252,100.081
2964.0537,100.08
2965.9822,100.08
2967.9106,100.08
2969.8391,100.08
2971.7676,100.08
2973.6960,100.08
2975.6245,100.08
2977.5530,100.081
2979.4814,100.082
2981.4099,100.084
2983.3384,100.084
2985.2668,100.084
2987.1953,100.083
2989.1238,100.081
2991.0522,100.078
2992.9807,100.075
2994.9092,100.073
2996.8376,100.072
2998.7661,100.071
3000.6946,100.072
3002.6230,100.072
3004.5515,100.071
3006.4800,100.07
