TITLE,test
DATA TYPE,INFRARED SPECTRUM
ORIGIN,JASCO
OWNER,test
DATE,26/02/12
TIME,12:28:22
SPECTROMETER/DATA SYSTEM,
LOCALE,1041
RESOLUTION,
DELTAX,1.92847
XUNITS,1/CM
YUNITS,SB
FIRSTX,  998.9459
LASTX, 6001.3891
NPOINTS,    2595
FIRSTY,    37.77779
MAXY,    64.10593
MINY,     2.68397
XYDATA
998.9459,37.7778
1000.8743,37.8383
1002.8028,37.8642
1004.7313,37.8533
1006.6597,37.8037
1008.5882,37.7156
1010.5167,37.5927
1012.4451,37.4425
1014.3736,37.2753
1016.3021,37.1016
1018.2305,36.93
1020.1590,36.7656
1022.0875,36.61
1024.0160,36.462
1025.9445,36.3189
1027.8729,36.1777
1029.8014,36.0356
1031.7299,35.8899
1033.6583,35.7383
1035.5868,35.5794
1037.5153,35.4133
1039.4437,35.2412
1041.3722,35.0652
1043.3007,34.8875
1045.2291,34.7097
1047.1576,34.5318
1049.0861,34.3528
1051.0145,34.1711
1052.9430,33.9857
1054.8715,33.7969
1056.7999,33.6066
1058.7284,33.4181
1060.6569,33.2353
1062.5853,33.0618
1064.5138,32.9002
1066.4423,32.7523
1068.3707,32.6187
1070.2992,32.4997
1072.2277,32.3961
1074.1561,32.3091
1076.0846,32.2409
1078.0131,32.1939
1079.9415,32.1698
1081.8700,32.1695
1083.7985,32.193
1085.7269,32.2398
1087.6554,32.3093
1089.5839,32.401
1091.5123,32.5149
1093.4408,32.651
1095.3693,32.8096
1097.2977,32.9905
1099.2262,33.1935
1101.1547,33.4182
1103.0831,33.6636
1105.0116,33.9284
1106.9401,34.2116
1108.8685,34.5118
1110.7970,34.8279
1112.7255,35.1587
1114.6539,35.5026
1116.5824,35.8578
1118.5109,36.2226
1120.4393,36.5947
1122.3678,36.9719
1124.2963,37.3516
1126.2247,37.7312
1128.1532,38.1084
1130.0817,38.4816
1132.0101,38.8506
1133.9386,39.2154
1135.8671,39.5766
1137.7955,39.9339
1139.7240,40.2866
1141.6525,40.6341
1143.5809,40.9767
1145.5094,41.3162
1147.4379,41.6553
1149.3663,41.9967
1151.2948,42.3416
1153.2233,42.6889
1155.1517,43.0359
1157.0802,43.3796
1159.0087,43.7186
1160.9371,44.0524
1162.8656,44.3816
1164.7941,44.7061
1166.7225,45.025
1168.6510,45.3373
1170.5795,45.6432
1172.5079,45.9448
1174.4364,46.2463
1176.3649,46.5522
1178.2933,46.866
1180.2218,47.1888
1182.1503,47.5191
1184.0787,47.8533
1186.0072,48.1865
1187.9357,48.5137
1189.8641,48.8309
1191.7926,49.1365
1193.7211,49.4315
1195.6495,49.7193
1197.5780,50.0039
1199.5065,50.2878
1201.4349,50.5705
1203.3634,50.8497
1205.2919,51.1227
1207.2203,51.39
1209.1488,51.6553
1211.0773,51.9244
1213.0057,52.2016
1214.9342,52.4873
1216.8627,52.7782
1218.7911,53.0703
1220.7196,53.3619
1222.6481,53.6547
1224.5765,53.9524
1226.5050,54.2574
1228.4335,54.5693
1230.3619,54.8838
1232.2904,55.1942
1234.2189,55.4935
1236.1473,55.7757
1238.0758,56.038
1240.0043,56.2815
1241.9327,56.5098
1243.8612,56.7236
1245.7897,56.915
1247.7181,57.0634
1249.6466,57.1408
1251.5751,57.1256
1253.5035,57.02
1255.4320,56.86
1257.3605,56.7105
1259.2889,56.6435
1261.2174,56.7119
1263.1459,56.9299
1265.0743,57.2724
1267.0028,57.69
1268.9313,58.1305
1270.8597,58.5531
1272.7882,58.9318
1274.7167,59.2497
1276.6451,59.4933
1278.5736,59.6539
1280.5021,59.7326
1282.4305,59.7445
1284.3590,59.7165
1286.2875,59.6789
1288.2159,59.6551
1290.1444,59.655
1292.0729,59.6746
1294.0013,59.7011
1295.9298,59.7202
1297.8583,59.7225
1299.7867,59.7045
1301.7152,59.6642
1303.6437,59.5932
1305.5721,59.4734
1307.5006,59.2846
1309.4291,59.0217
1311.3575,58.7105
1313.2860,58.4078
1315.2145,58.1828
1317.1429,58.0884
1319.0714,58.1427
1320.9999,58.3253
1322.9283,58.5842
1324.8568,58.8395
1326.7853,58.9857
1328.7137,58.9082
1330.6422,58.5286
1332.5707,57.8651
1334.4991,57.0653
1336.4276,56.37
1338.3561,56.0098
1340.2845,56.0916
1342.2130,56.5488
1344.1415,57.1865
1346.0699,57.7855
1347.9984,58.1884
1349.9269,58.3189
1351.8553,58.1521
1353.7838,57.6917
1355.7123,56.9892
1357.6407,56.1773
1359.5692,55.4572
1361.4977,55.012
1363.4261,54.8982
1365.3546,55.0047
1367.2831,55.1284
1369.2115,55.1198
1371.1400,54.987
1373.0685,54.8741
1374.9969,54.9316
1376.9254,55.1855
1378.8539,55.504
1380.7823,55.6815
1382.7108,55.5619
1384.6393,55.1097
1386.5677,54.393
1388.4962,53.5224
1390.4247,52.6108
1392.3531,51.7767
1394.2816,51.1622
1396.2101,50.919
1398.1385,51.1551
1400.0670,51.8782
1401.9955,52.9741
1403.9240,54.2276
1405.8524,55.3624
1407.7809,56.0842
1409.7094,56.1392
1411.6378,55.4078
1413.5663,54.0109
1415.4948,52.3525
1417.4232,51.0194
1419.3517,50.5345
1421.2802,51.0815
1423.2086,52.3738
1425.1371,53.7773
1427.0656,54.6406
1428.9940,54.6417
1430.9225,53.9449
1432.8510,53.0792
1434.7794,52.6293
1436.7079,52.9327
1438.6364,53.9458
1440.5648,55.3121
1442.4933,56.5426
1444.4218,57.1858
1446.3502,56.9281
1448.2787,55.6461
1450.2072,53.4601
1452.1356,50.7825
1454.0641,48.289
1455.9926,46.7359
1457.9210,46.6434
1459.8495,47.9917
1461.7780,50.1395
1463.7064,52.0771
1465.6349,52.9287
1467.5634,52.4295
1469.4918,51.0828
1471.4203,49.8796
1473.3488,49.7332
1475.2772,50.9652
1477.2057,53.1418
1479.1342,55.3358
1481.0626,56.6293
1482.9911,56.5574
1484.9196,55.2696
1486.8480,53.3785
1488.7765,51.6292
1490.7050,50.5654
1492.6334,50.3184
1494.5619,50.5714
1496.4904,50.7061
1498.4188,50.0952
1500.3473,48.441
1502.2758,45.9949
1504.2042,43.4973
1506.1327,41.8128
1508.0612,41.4389
1509.9896,42.1907
1511.9181,43.2913
1513.8466,43.8406
1515.7750,43.3726
1517.7035,42.1415
1519.6320,40.954
1521.5604,40.6694
1523.4889,41.6894
1525.4174,43.7329
1527.3458,45.9846
1529.2743,47.484
1531.2028,47.5352
1533.1312,45.9753
1535.0597,43.2457
1536.9882,40.2735
1538.9166,38.1837
1540.8451,37.8853
1542.7736,39.6518
1544.7020,42.8944
1546.6305,46.3084
1548.5590,48.4111
1550.4874,48.2492
1552.4159,45.9066
1554.3444,42.5075
1556.2728,39.6832
1558.2013,38.7776
1560.1298,40.2234
1562.0582,43.4104
1563.9867,47.0792
1565.9152,49.9887
1567.8436,51.4839
1569.7721,51.6976
1571.7006,51.3467
1573.6290,51.2939
1575.5575,52.1245
1577.4860,53.9287
1579.4144,56.3439
1581.3429,58.7845
1583.2714,60.7225
1585.1998,61.8894
1587.1283,62.3261
1589.0568,62.2893
1590.9852,62.0829
1592.9137,61.9147
1594.8422,61.8444
1596.7706,61.8275
1598.6991,61.7987
1600.6276,61.7232
1602.5560,61.5843
1604.4845,61.3343
1606.4130,60.8676
1608.3414,60.055
1610.2699,58.8281
1612.1984,57.26
1614.1268,55.5888
1616.0553,54.1633
1617.9838,53.3245
1619.9122,53.2649
1621.8407,53.9168
1623.7692,54.9264
1625.6976,55.7577
1627.6261,55.9197
1629.5546,55.2282
1631.4830,53.9505
1633.4115,52.7021
1635.3400,52.1
1637.2684,52.3509
1639.1969,53.0444
1641.1254,53.3255
1643.0538,52.3912
1644.9823,50.0219
1646.9108,46.8124
1648.8392,43.9424
1650.7677,42.6093
1652.6962,43.4491
1654.6246,46.2532
1656.5531,50.0949
1658.4816,53.7517
1660.4100,56.192
1662.3385,56.922
1664.2670,56.0961
1666.1954,54.3862
1668.1239,52.6644
1670.0524,51.6097
1671.9808,51.3971
1673.9093,51.6426
1675.8378,51.6733
1677.7662,50.9991
1679.6947,49.6957
1681.6232,48.4166
1683.5516,47.977
1685.4801,48.7622
1687.4086,50.3667
1689.3370,51.7453
1691.2655,51.8147
1693.1940,50.1335
1695.1224,47.2287
1697.0509,44.3646
1698.9794,42.8984
1700.9078,43.5946
1702.8363,46.2615
1704.7648,49.8636
1706.6932,53.0175
1708.6217,54.6183
1710.5502,54.3188
1712.4786,52.6647
1714.4071,50.8285
1716.3356,50.0484
1718.2640,51.0199
1720.1925,53.5323
1722.1210,56.5508
1724.0494,58.7243
1725.9779,59.0653
1727.9064,57.4414
1729.8348,54.6166
1731.7633,51.8321
1733.6918,50.1701
1735.6202,50.0552
1737.5487,51.1433
1739.4772,52.6189
1741.4056,53.6922
1743.3341,54.0016
1745.2626,53.7171
1747.1910,53.3349
1749.1195,53.3355
1751.0480,53.9254
1752.9764,54.9917
1754.9049,56.2366
1756.8334,57.3533
1758.7618,58.1214
1760.6903,58.4015
1762.6188,58.1078
1764.5472,57.2375
1766.4757,55.9527
1768.4042,54.6231
1770.3326,53.7413
1772.2611,53.7187
1774.1896,54.6736
1776.1180,56.3516
1778.0465,58.2324
1779.9750,59.7577
1781.9034,60.5473
1783.8319,60.5022
1785.7604,59.7783
1787.6888,58.6873
1789.6173,57.587
1791.5458,56.7935
1793.4742,56.5154
1795.4027,56.8106
1797.3312,57.5784
1799.2596,58.6029
1801.1881,59.6367
1803.1166,60.4923
1805.0450,61.0994
1806.9735,61.5059
1808.9020,61.8292
1810.8304,62.1815
1812.7589,62.5982
1814.6874,62.9966
1816.6158,63.1884
1818.5443,62.9567
1820.4728,62.1793
1822.4012,60.9424
1824.3297,59.5719
1826.2582,58.5342
1828.1866,58.2288
1830.1151,58.7693
1832.0436,59.8828
1833.9720,61.0089
1835.9005,61.5722
1837.8290,61.2865
1839.7574,60.3176
1841.6859,59.1989
1843.6144,58.545
1845.5428,58.7308
1847.4713,59.7257
1849.3998,61.1628
1851.3282,62.5707
1853.2567,63.5992
1855.1852,64.1059
1857.1136,64.0964
1859.0421,63.6203
1860.9706,62.7376
1862.8990,61.5739
1864.8275,60.3854
1866.7560,59.5294
1868.6844,59.3209
1870.6129,59.8607
1872.5414,60.9607
1874.4698,62.2274
1876.3983,63.2507
1878.3268,63.7785
1880.2552,63.7815
1882.1837,63.3987
1884.1122,62.832
1886.0406,62.2663
1887.9691,61.8403
1889.8976,61.6474
1891.8260,61.728
1893.7545,62.0507
1895.6830,62.5049
1897.6115,62.9339
1899.5399,63.2011
1901.4684,63.251
1903.3969,63.1234
1905.3253,62.9077
1907.2538,62.6722
1909.1823,62.4192
1911.1107,62.0999
1913.0392,61.6774
1914.9677,61.189
1916.8961,60.7588
1918.8246,60.5444
1920.7531,60.6535
1922.6815,61.0829
1924.6100,61.7195
1926.5385,62.3942
1928.4669,62.9497
1930.3954,63.2815
1932.3239,63.3436
1934.2523,63.1392
1936.1808,62.7207
1938.1093,62.1963
1940.0377,61.7198
1941.9662,61.446
1943.8947,61.4638
1945.8231,61.7508
1947.7516,62.1848
1949.6801,62.6089
1951.6085,62.908
1953.5370,63.0461
1955.4655,63.0478
1957.3939,62.9528
1959.3224,62.7868
1961.2509,62.5684
1963.1793,62.3348
1965.1078,62.1509
1967.0363,62.0847
1968.9647,62.1658
1970.8932,62.3641
1972.8217,62.6053
1974.7501,62.8123
1976.6786,62.9375
1978.6071,62.9656
1980.5355,62.8942
1982.4640,62.7197
1984.3925,62.4463
1986.3209,62.1102
1988.2494,61.7898
1990.1779,61.5829
1992.1063,61.5587
1994.0348,61.7175
1995.9633,61.9879
1997.8917,62.2661
1999.8202,62.4691
2001.7487,62.5676
2003.6771,62.5789
2005.6056,62.5355
2007.5341,62.4556
2009.4625,62.3391
2011.3910,62.1865
2013.3195,62.0188
2015.2479,61.8786
2017.1764,61.8095
2019.1049,61.8298
2021.0333,61.921
2022.9618,62.0392
2024.8903,62.1397
2026.8187,62.1973
2028.7472,62.2089
2030.6757,62.1836
2032.6041,62.1306
2034.5326,62.0557
2036.4611,61.9665
2038.3895,61.8776
2040.3180,61.8091
2042.2465,61.7763
2044.1749,61.7817
2046.1034,61.8132
2048.0320,61.8506
2049.9604,61.8756
2051.8889,61.8768
2053.8174,61.8492
2055.7458,61.7922
2057.6743,61.7101
2059.6028,61.614
2061.5313,61.5232
2063.4597,61.4589
2065.3882,61.4352
2067.3167,61.4504
2069.2451,61.4876
2071.1736,61.5241
2073.1021,61.5425
2075.0305,61.5381
2076.9590,61.516
2078.8875,61.4836
2080.8159,61.4442
2082.7444,61.3973
2084.6729,61.3427
2086.6013,61.2857
2088.5298,61.2353
2090.4583,61.1994
2092.3867,61.1794
2094.3152,61.1691
2096.2437,61.1586
2098.1721,61.1404
2100.1006,61.1122
2102.0291,61.0761
2103.9575,61.0352
2105.8860,60.9912
2107.8145,60.9443
2109.7429,60.8949
2111.6714,60.8456
2113.5999,60.8
2115.5283,60.7608
2117.4568,60.7287
2119.3853,60.7018
2121.3137,60.6769
2123.2422,60.6509
2125.1707,60.6215
2127.0991,60.5876
2129.0276,60.5489
2130.9561,60.5069
2132.8845,60.4645
2134.8130,60.4253
2136.7415,60.3918
2138.6699,60.3639
2140.5984,60.3379
2142.5269,60.3086
2144.4553,60.2717
2146.3838,60.2256
2148.3123,60.1718
2150.2407,60.1135
2152.1692,60.0535
2154.0977,59.993
2156.0261,59.9324
2157.9546,59.8717
2159.8831,59.8118
2161.8115,59.7535
2163.7400,59.6978
2165.6685,59.6444
2167.5969,59.5924
2169.5254,59.541
2171.4539,59.4895
2173.3823,59.4379
2175.3108,59.3862
2177.2393,59.3348
2179.1677,59.2837
2181.0962,59.2331
2183.0247,59.183
2184.9531,59.1336
2186.8816,59.0848
2188.8101,59.0362
2190.7385,58.9873
2192.6670,58.9376
2194.5955,58.8865
2196.5239,58.8339
2198.4524,58.7796
2200.3809,58.7237
2202.3093,58.6665
2204.2378,58.6082
2206.1663,58.5492
2208.0947,58.49
2210.0232,58.4308
2211.9517,58.3716
2213.8801,58.3119
2215.8086,58.2514
2217.7371,58.1893
2219.6655,58.1252
2221.5940,58.0591
2223.5225,57.9909
2225.4509,57.9209
2227.3794,57.8492
2229.3079,57.776
2231.2363,57.7014
2233.1648,57.625
2235.0933,57.5465
2237.0217,57.4649
2238.9502,57.3794
2240.8787,57.2895
2242.8071,57.1941
2244.7356,57.0922
2246.6641,56.9823
2248.5925,56.8633
2250.5210,56.7349
2252.4495,56.5978
2254.3779,56.4533
2256.3064,56.303
2258.2349,56.1493
2260.1633,55.9949
2262.0918,55.8434
2264.0203,55.6985
2265.9487,55.5634
2267.8772,55.4416
2269.8057,55.3382
2271.7341,55.2596
2273.6626,55.2104
2275.5911,55.1872
2277.5195,55.1736
2279.4480,55.141
2281.3765,55.0545
2283.3049,54.8845
2285.2334,54.6147
2287.1619,54.2459
2289.0903,53.7927
2291.0188,53.2759
2292.9473,52.712
2294.8757,52.1046
2296.8042,51.4387
2298.7327,50.6831
2300.6611,49.8011
2302.5896,48.7655
2304.5181,47.5691
2306.4465,46.2244
2308.3750,44.7536
2310.3035,43.1765
2312.2319,41.5079
2314.1604,39.7642
2316.0889,37.9727
2318.0173,36.1751
2319.9458,34.4225
2321.8743,32.768
2323.8027,31.2607
2325.7312,29.9395
2327.6597,28.8218
2329.5881,27.8927
2331.5166,27.1105
2333.4451,26.4425
2335.3735,25.9188
2337.3020,25.6617
2339.2305,25.8433
2341.1589,26.5677
2343.0874,27.7358
2345.0159,28.9926
2346.9443,29.8204
2348.8728,29.7559
2350.8013,28.616
2352.7297,26.6012
2354.6582,24.2131
2356.5867,22.0363
2358.5151,20.5144
2360.4436,19.8365
2362.3721,19.9694
2364.3005,20.7806
2366.2290,22.156
2368.1575,24.0478
2370.0859,26.4473
2372.0144,29.3248
2373.9429,32.5823
2375.8713,36.0434
2377.7998,39.4771
2379.7283,42.6408
2381.6567,45.3271
2383.5852,47.4062
2385.5137,48.8488
2387.4421,49.7224
2389.3706,50.1604
2391.2991,50.3153
2393.2275,50.3168
2395.1560,50.2506
2397.0845,50.1604
2399.0129,50.0627
2400.9414,49.9625
2402.8699,49.8614
2404.7983,49.7601
2406.7268,49.6584
2408.6553,49.5559
2410.5837,49.4527
2412.5122,49.3498
2414.4407,49.2473
2416.3691,49.145
2418.2976,49.0417
2420.2261,48.9371
2422.1545,48.8319
2424.0830,48.7269
2426.0115,48.6228
2427.9399,48.5196
2429.8684,48.4169
2431.7969,48.3145
2433.7253,48.2121
2435.6538,48.1096
2437.5823,48.0068
2439.5107,47.9036
2441.4392,47.8
2443.3677,47.6967
2445.2961,47.5938
2447.2246,47.4914
2449.1531,47.3893
2451.0815,47.2872
2453.0100,47.1853
2454.9385,47.0839
2456.8669,46.9831
2458.7954,46.8827
2460.7239,46.7825
2462.6523,46.6821
2464.5808,46.5815
2466.5093,46.4805
2468.4377,46.3793
2470.3662,46.2782
2472.2947,46.1774
2474.2231,46.0771
2476.1516,45.9772
2478.0801,45.8775
2480.0085,45.7775
2481.9370,45.6773
2483.8655,45.5771
2485.7939,45.4772
2487.7224,45.3778
2489.6509,45.2789
2491.5793,45.18
2493.5078,45.0811
2495.4363,44.9819
2497.3647,44.8824
2499.2932,44.7829
2501.2217,44.6835
2503.1501,44.5846
2505.0786,44.4861
2507.0071,44.3879
2508.9355,44.2895
2510.8640,44.1908
2512.7925,44.0918
2514.7209,43.9928
2516.6494,43.8942
2518.5779,43.7962
2520.5063,43.6988
2522.4348,43.6018
2524.3633,43.5049
2526.2917,43.4082
2528.2202,43.3116
2530.1487,43.2153
2532.0771,43.1193
2534.0056,43.0237
2535.9341,42.9284
2537.8625,42.8335
2539.7910,42.7388
2541.7195,42.6442
2543.6479,42.5498
2545.5764,42.4555
2547.5049,42.3614
2549.4333,42.2676
2551.3618,42.174
2553.2903,42.0806
2555.2188,41.9872
2557.1472,41.8939
2559.0757,41.8007
2561.0042,41.7076
2562.9326,41.6148
2564.8611,41.5224
2566.7896,41.4302
2568.7180,41.3382
2570.6465,41.2461
2572.5750,41.1539
2574.5034,41.0616
2576.4319,40.9696
2578.3604,40.8779
2580.2888,40.7868
2582.2173,40.6962
2584.1458,40.606
2586.0742,40.5161
2588.0027,40.4264
2589.9312,40.3367
2591.8596,40.2472
2593.7881,40.1579
2595.7166,40.0688
2597.6450,39.9799
2599.5735,39.8912
2601.5020,39.8026
2603.4304,39.7141
2605.3589,39.6257
2607.2874,39.5377
2609.2158,39.4503
2611.1443,39.3635
2613.0728,39.2772
2615.0012,39.191
2616.9297,39.1046
2618.8582,39.0182
2620.7866,38.9319
2622.7151,38.8462
2624.6436,38.7613
2626.5720,38.6773
2628.5005,38.5939
2630.4290,38.5106
2632.3574,38.4273
2634.2859,38.3441
2636.2144,38.2612
2638.1428,38.1788
2640.0713,38.0968
2641.9998,38.0152
2643.9282,37.9338
2645.8567,37.8526
2647.7852,37.7714
2649.7136,37.6904
2651.6421,37.6098
2653.5706,37.5294
2655.4990,37.4493
2657.4275,37.3696
2659.3560,37.2903
2661.2844,37.2115
2663.2129,37.1332
2665.1414,37.055
2667.0698,36.9764
2668.9983,36.8973
2670.9268,36.8176
2672.8552,36.7381
2674.7837,36.6596
2676.7122,36.5826
2678.6406,36.5075
2680.5691,36.4336
2682.4976,36.3605
2684.4260,36.2873
2686.3545,36.2139
2688.2830,36.1401
2690.2114,36.0664
2692.1399,35.9929
2694.0684,35.9196
2695.9968,35.8466
2697.9253,35.7738
2699.8538,35.7011
2701.7822,35.6285
2703.7107,35.5562
2705.6392,35.4841
2707.5676,35.4124
2709.4961,35.3407
2711.4246,35.2688
2713.3530,35.1963
2715.2815,35.1232
2717.2100,35.05
2719.1384,34.9775
2721.0669,34.9065
2722.9954,34.8373
2724.9238,34.7696
2726.8523,34.7026
2728.7808,34.6358
2730.7092,34.569
2732.6377,34.5024
2734.5662,34.4361
2736.4946,34.3697
2738.4231,34.3026
2740.3516,34.2346
2742.2800,34.1657
2744.2085,34.0969
2746.1370,34.029
2748.0654,33.9627
2749.9939,33.8977
2751.9224,33.8331
2753.8508,33.7682
2755.7793,33.7028
2757.7078,33.6371
2759.6362,33.5716
2761.5647,33.5062
2763.4932,33.4406
2765.4216,33.3743
2767.3501,33.3071
2769.2786,33.2396
2771.2070,33.1727
2773.1355,33.1071
2775.0640,33.0427
2776.9924,32.9788
2778.9209,32.9144
2780.8494,32.8491
2782.7778,32.7829
2784.7063,32.7164
2786.6348,32.6502
2788.5632,32.5848
2790.4917,32.5201
2792.4202,32.4564
2794.3486,32.3936
2796.2771,32.3317
2798.2056,32.2704
2800.1340,32.2092
2802.0625,32.1477
2803.9910,32.0856
2805.9194,32.0232
2807.8479,31.961
2809.7764,31.8995
2811.7048,31.8383
2813.6333,31.7771
2815.5618,31.7153
2817.4902,31.6527
2819.4187,31.5899
2821.3472,31.5271
2823.2756,31.464
2825.2041,31.3994
2827.1326,31.332
2829.0610,31.2609
2830.9895,31.1862
2832.9180,31.108
2834.8464,31.0248
2836.7749,30.9331
2838.7034,30.8282
2840.6318,30.7077
2842.5603,30.574
2844.4888,30.4362
2846.4172,30.3076
2848.3457,30.2014
2850.2742,30.1257
2852.2026,30.081
2854.1311,30.061
2856.0596,30.0555
2857.9880,30.0543
2859.9165,30.0497
2861.8450,30.037
2863.7734,30.0144
2865.7019,29.9827
2867.6304,29.9445
2869.5588,29.9033
2871.4873,29.862
2873.4158,29.8221
2875.3442,29.7828
2877.2727,29.7421
2879.2012,29.6974
2881.1296,29.6471
2883.0581,29.5906
2884.9866,29.5283
2886.9150,29.4611
2888.8435,29.3896
2890.7720,29.3149
2892.7004,29.2378
2894.6289,29.1594
2896.5574,29.0804
2898.4858,29.0007
2900.4143,28.9189
2902.3428,28.8324
2904.2712,28.7373
2906.1997,28.6302
2908.1282,28.51
2910.0566,28.3788
2911.9851,28.2434
2913.9136,28.1131
2915.8420,27.9979
2917.7705,27.9054
2919.6990,27.839
2921.6274,27.7981
2923.5559,27.7795
2925.4844,27.7791
2927.4128,27.7926
2929.3413,27.8156
2931.2698,27.8441
2933.1982,27.8738
2935.1267,27.9007
2937.0552,27.9215
2938.9836,27.9335
2940.9121,27.9345
2942.8406,27.9225
2944.7690,27.896
2946.6975,27.8541
2948.6260,27.7978
2950.5544,27.7294
2952.4829,27.6532
2954.4114,27.5743
2956.3398,27.4987
2958.2683,27.4324
2960.1968,27.3809
2962.1252,27.348
2964.0537,27.3344
2965.9822,27.3377
2967.9106,27.3523
2969.8391,27.3712
2971.7676,27.3884
2973.6960,27.4003
2975.6245,27.406
2977.5530,27.4059
2979.4814,27.4003
2981.4099,27.3884
2983.3384,27.3689
2985.2668,27.3414
2987.1953,27.3068
2989.1238,27.2681
2991.0522,27.2284
2992.9807,27.1901
2994.9092,27.154
2996.8376,27.1187
2998.7661,27.0815
3000.6946,27.0388
3002.6230,26.9873
3004.5515,26.9254
